File: Carboncapture/XRD data/Pt_al2o3_raw.csv
2 theta,Intensity
5.0001,-0.0446353
5.22494,-0.005093912
5.44977,0.005839104
5.6746,0.007676363
5.89944,0.104622
6.12427,-0.042538
6.34911,0.0332106
6.57394,0.0506176
6.79878,-0.002469717
7.02361,0.101379
7.24845,0.0377724
7.47328,0.13503
7.69812,-0.0135535
7.92295,-0.109368
8.14779,0.0172136
8.37262,-0.003088507
8.59746,0.0397957
8.82229,-0.0148654
9.04713,0.140331
9.27196,0.03583136
9.4968,0.0414214
9.72163,0.0945726
9.94647,0.0112573
10.1713,0.034531
10.3961,0.005697689
10.621,-0.0296601
10.8458,-0.0174566
11.0706,-0.004422014
11.2955,-0.003027466
11.5203,-0.0183078
11.7451,0.109459
11.97,0.02610695
12.1948,0.120524
12.4197,0.179169
12.6445,0.0735703
12.8693,0.119699
13.0942,0.00158354
13.319,0.128946
13.5438,0.224008
13.7687,0.0749655
13.9935,-0.00568288
14.2183,0.122688
14.4432,0.100704
14.668,0.162739
14.8928,0.131711
15.1177,0.040605
15.3425,0.0769213
15.5673,0.0201739
15.7922,0.227747
16.017,0.312371
16.2418,0.42893
16.4667,0.244092
16.6915,0.0356354
16.9164,-0.0905381
17.1412,0.0391829
17.366,0.0758402
17.5909,0.142654
17.8157,0.279583
18.0405,0.745323
18.2654,1.47737
18.4902,0.619833
18.715,0.53034
18.9399,0.634241
19.1647,0.806537
19.3895,1.12709
19.6144,0.882355
19.8392,0.495945
20.064,0.738695
20.2889,0.546366
20.5137,0.111668
20.7385,0.05439307
20.9634,-0.159494
21.1882,-0.0168607
21.4131,-0.0106934
21.6379,-0.083701
21.8627,0.000227652
22.0876,-0.0193241
22.3124,-0.241315
22.5372,-0.0220804
22.7621,0.0398541
22.9869,0.0531529
23.2117,0.007257227
23.4366,0.04107519
23.6614,-0.008773898
23.8862,-0.0494152
24.1111,-0.0371591
24.3359,-0.0835789
24.5607,0.233535
24.7856,-0.007451537
25.0104,-0.138709
25.2352,0.110929
25.4601,0.0713218
25.6849,0.0680302
25.9097,-0.0571571
26.1346,0.0544531
26.3594,0.155514
26.5843,0.232272
26.8091,0.365272
27.0339,0.108334
27.2588,0.265276
27.4836,0.244085
27.7084,0.326011
27.9333,0.556193
28.1581,0.5822
28.3829,0.313754
28.6078,0.443563
28.8326,0.659129
29.0574,0.5663525
29.2823,0.785026
29.5071,0.874178
29.7319,1.04388
29.9568,1.56149
30.1816,2.27596
30.4064,3.30015
30.6313,4.56461
30.8561,6.45996
31.081,8.57475
31.3058,8.19022
31.5306,7.25777
31.7555,6.68886
31.9803,6.42792
32.2051,7.36037
32.43,11.4689
32.6548,17.5728
32.8796,10.7817
33.1045,5.77241
33.3293,4.17531
33.5541,3.33411
33.779,2.99012
34.0038,3.09647
34.2286,3.39274
34.4535,3.70879
34.6783,3.94567
34.9031,4.27004
35.128,3.79996
35.3528,4.38786
35.5777,4.70908
35.8025,6.09696
36.0273,7.28761
36.2522,9.71332
36.477,11.5373
36.7018,12.0633
36.9267,10.7637
37.1515,9.27025
37.3763,7.73064
37.6012,6.90179
37.826,6.37397
38.0508,6.85379
38.2757,7.1381
38.5005,8.46651
38.7253,9.68449
38.9502,10.7157
39.175,10.9194
39.3998,10.9554
39.6247,10.5199
39.8495,8.52949
40.0743,6.63701
40.2992,4.87021
40.524,3.63708
40.7489,2.29353
40.9737,1.8656
41.1985,1.26474
41.4234,1.05172
41.6482,0.754321
41.873,0.455869
42.0979,0.0174777
42.3227,0.274217
42.5475,-0.0909481
42.7724,0.0919071
42.9972,-0.047179
43.222,0.169697
43.4469,0.408092
43.6717,0.636757
43.8965,1.19771
44.1214,2.63955
44.3462,5.42062
44.571,10.0982
44.7959,13.2418
45.0207,14.1325
45.2456,14.2601
45.4704,12.4578
45.6952,10.2447
45.9201,7.84657
46.1449,6.93521
46.3697,7.00024
46.5946,6.77254
46.8194,6.2695
47.0442,5.92512
47.2691,5.52067
47.4939,5.41725
47.7187,3.64438
47.9436,1.75588
48.1684,0.746529
48.3932,0.392383
48.6181,0.224687
48.8429,0.0680939
49.0677,0.0180898
49.2926,0.064258
49.5174,-0.02554853
49.7423,-0.0259731
49.9671,0.444775
50.1919,0.671417
50.4168,1.41263
50.6416,1.93405
50.8664,1.45616
51.0913,0.787974
51.3161,0.816658
51.5409,0.264432
51.7658,0.0462254
51.9906,0.0917796
52.2154,0.22704
52.4403,0.158127
52.6651,0.0117738
52.8899,0.0449268
53.1148,-0.0601229
53.3396,0.161903
53.5644,0.0715728
53.7893,-0.0635299
54.0141,0.0435025
54.2389,0.159902
54.4638,0.264835
54.6886,0.0717078
54.9135,-0.0111946
55.1383,0.104007
55.3631,-0.0717763
55.588,0.173265
55.8128,0.217605
56.0376,-0.0707035
56.2625,0.252786
56.4873,0.46585
56.7121,0.521615
56.937,0.242996
57.1618,-0.008894468
57.3866,-0.0847517
57.6115,-0.0870061
57.8363,0.027913
58.0611,-0.12746
58.286,0.282295
58.5108,0.508708
58.7356,0.756641
58.9605,0.902829
59.1853,1.38477
59.4102,2.20768
59.635,3.23614
59.8598,3.92847
60.0847,3.85761
60.3095,2.9975
60.5343,2.63634
60.7592,2.0901
60.984,2.04107
61.2088,2.23405
61.4337,2.24196
61.6585,2.32867
61.8833,2.56191
62.1082,2.77499
62.333,3.06516
62.5578,2.21017
62.7827,1.8333
63.0075,1.67067
63.2323,1.85767
63.4572,2.4464
63.682,2.92124
63.9069,3.66412
64.1317,3.85734
64.3565,3.45924
64.5814,3.50973
64.8062,3.63036
65.031,4.09543
65.2559,4.68618
65.4807,5.65609
65.7055,6.50168
65.9304,8.40873
66.1552,11.8408
66.38,16.5547
66.6049,18.3649
66.8297,20.917
67.0545,24.1904
67.2794,25.8741
67.5042,19.9665
67.729,13.0318
67.9539,7.09086
68.1787,3.944
68.4036,2.32214
68.6284,1.36763
68.8532,0.84783
69.0781,0.523164
69.3029,0.390155
69.5277,0.181444
69.7526,-0.0665114
69.9774,-0.0296087
69.9978,-0.106315