File: Carboncapture/XRD data/Pt_al2o3_200c.csv
2 theta,Intensity
5.0001,-0.0459004
5.22494,-0.002756731
5.44977,0.110625
5.6746,-0.0217094
5.89944,0.063702
6.12427,0.0665125
6.34911,-0.0202225
6.57394,0.0534972
6.79878,0.0758658
7.02361,0.0434112
7.24845,-0.0242512
7.47328,0.131014
7.69812,0.0127063
7.92295,-0.0406331
8.14779,-0.008171434
8.37262,0.0188217
8.59746,-0.000327799
8.82229,0.085346
9.04713,0.056959
9.27196,-0.04882062
9.4968,0.0127988
9.72163,-0.0463772
9.94647,0.0675439
10.1713,0.110617
10.3961,0.0267751
10.621,0.11338
10.8458,0.0479394
11.0706,0.145238
11.2955,0.0908065
11.5203,0.155163
11.7451,0.0865707
11.97,0.136767
12.1948,0.458528
12.4197,0.232411
12.6445,0.397651
12.8693,0.69036
13.0942,0.699079
13.319,0.687696
13.5438,0.54163
13.7687,0.686226
13.9935,0.689194
14.2183,0.684213
14.4432,0.589687
14.668,0.607005
14.8928,0.578179
15.1177,0.751475
15.3425,0.522726
15.5673,0.602001
15.7922,0.807007
16.017,0.873858
16.2418,0.779982
16.4667,0.768436
16.6915,0.665609
16.9164,0.407264
17.1412,0.39097
17.366,0.420548
17.5909,0.395303
17.8157,0.41072
18.0405,0.881731
18.2654,0.915975
18.4902,0.798173
18.715,0.872075
18.9399,0.976224
19.1647,1.12277
19.3895,1.29783
19.6144,1.14202
19.8392,0.707434
20.064,0.712814
20.2889,0.642537
20.5137,0.130285
20.7385,0.0857783
20.9634,0.06110153
21.1882,-0.002773452
21.4131,0.00352836
21.6379,0.0244514
21.8627,0.0391624
22.0876,0.0471386
22.3124,0.266169
22.5372,0.008345448
22.7621,0.261836
22.9869,0.142071
23.2117,-0.008175473
23.4366,-0.107635
23.6614,0.0784522
23.8862,-0.0767425
24.1111,-0.006303689
24.3359,-0.0246394
24.5607,-0.0873817
24.7856,0.105817
25.0104,0.0619003
25.2352,0.131563
25.4601,-0.077555
25.6849,0.115101
25.9097,-0.002275391
26.1346,0.0128419
26.3594,-0.009028849
26.5843,0.17643
26.8091,0.326163
27.0339,-0.009482993
27.2588,0.268451
27.4836,0.251978
27.7084,0.474085
27.9333,0.622271
28.1581,0.706953
28.3829,0.677785
28.6078,0.671918
28.8326,0.781367
29.0574,0.907174
29.2823,1.11705
29.5071,1.12105
29.7319,1.39142
29.9568,2.22328
30.1816,2.54893
30.4064,3.27635
30.6313,4.8361
30.8561,7.04763
31.081,8.6835
31.3058,8.74198
31.5306,7.99737
31.7555,7.39064
31.9803,6.89749
32.2051,8.0596
32.43,12.2641
32.6548,18.0874
32.8796,11.4357
33.1045,5.97748
33.3293,4.23352
33.5541,3.59793
33.779,3.34328
34.0038,3.44006
34.2286,3.54452
34.4535,3.85283
34.6783,4.43965
34.9031,4.15221
35.128,4.27695
35.3528,4.66111
35.5777,5.16059
35.8025,5.8535
36.0273,8.03326
36.2522,10.4794
36.477,12.7144
36.7018,12.6724
36.9267,11.5252
37.1515,9.65311
37.3763,8.37199
37.6012,7.58813
37.826,7.00986
38.0508,7.24482
38.2757,7.58294
38.5005,8.6718
38.7253,10.3569
38.9502,10.9194
39.175,10.9376
39.3998,11.0832
39.6247,10.6913
39.8495,8.4356
40.0743,7.00354
40.2992,5.29096
40.524,4.05134
40.7489,2.5503
40.9737,2.11249
41.1985,1.43756
41.4234,1.08282
41.6482,0.777411
41.873,0.342531
42.0979,0.161855
42.3227,0.238856
42.5475,0.0145065
42.7724,0.403736
42.9972,0.111642
43.222,0.27089
43.4469,0.25205
43.6717,0.79297
43.8965,1.30858
44.1214,2.52805
44.3462,5.41492
44.571,10.424
44.7959,13.8506
45.0207,14.8264
45.2456,14.5895
45.4704,13.4644
45.6952,10.59
45.9201,8.2928
46.1449,7.78622
46.3697,7.38107
46.5946,7.38637
46.8194,6.52782
47.0442,5.90785
47.2691,6.13237
47.4939,5.75171
47.7187,4.20685
47.9436,2.13495
48.1684,1.11587
48.3932,0.477722
48.6181,0.201421
48.8429,0.168908
49.0677,0.279488
49.2926,0.0105919
49.5174,-0.04791287
49.7423,-0.0308168
49.9671,0.381109
50.1919,0.981267
50.4168,1.43459
50.6416,1.81225
50.8664,1.31565
51.0913,0.755542
51.3161,0.67707
51.5409,0.429192
51.7658,0.0848232
51.9906,0.0137567
52.2154,0.150037
52.4403,0.120733
52.6651,0.18591
52.8899,0.182376
53.1148,0.146587
53.3396,-0.0603436
53.5644,0.172271
53.7893,0.120926
54.0141,-0.12934
54.2389,0.363905
54.4638,0.0243916
54.6886,0.0189434
54.9135,-0.0147865
55.1383,0.120904
55.3631,-0.065589
55.588,0.158372
55.8128,0.134802
56.0376,0.344603
56.2625,0.254789
56.4873,0.354943
56.7121,0.481871
56.937,0.428977
57.1618,0.005286494
57.3866,0.20212
57.6115,-0.008299599
57.8363,-0.0883419
58.0611,0.270505
58.286,0.289806
58.5108,0.681368
58.7356,0.920884
58.9605,0.869466
59.1853,1.52364
59.4102,2.28966
59.635,3.48349
59.8598,4.11903
60.0847,3.92892
60.3095,3.29161
60.5343,2.86859
60.7592,2.62511
60.984,2.35633
61.2088,2.54313
61.4337,2.23241
61.6585,2.47277
61.8833,2.53156
62.1082,3.12061
62.333,3.03851
62.5578,2.49881
62.7827,1.939
63.0075,1.75841
63.2323,1.84938
63.4572,2.17892
63.682,3.31476
63.9069,3.97911
64.1317,3.67196
64.3565,3.54784
64.5814,3.61196
64.8062,3.84347
65.031,4.22155
65.2559,4.90244
65.4807,5.67955
65.7055,6.67441
65.9304,8.67868
66.1552,12.6264
66.38,16.9099
66.6049,19.9598
66.8297,22.3715
67.0545,25.7475
67.2794,26.9801
67.5042,21.8471
67.729,13.7653
67.9539,7.35945
68.1787,4.3832
68.4036,2.26531
68.6284,1.47976
68.8532,0.811261
69.0781,0.160854
69.3029,0.205624
69.5277,0.176474
69.7526,0.151528
69.9774,-0.0276048
69.9978,-0.102739