File: Carboncapture/XRD data/Pt_al2o3_300C.csv
2 theta,Intensity
5.0001,-0.0500771
5.22494,0.0302983
5.44977,0.004096023
5.6746,-0.017894
5.89944,0.0754394
6.12427,0.0249423
6.34911,0.0696018
6.57394,0.0108346
6.79878,0.0257242
7.02361,0.0326733
7.24845,0.0195291
7.47328,-0.0414861
7.69812,0.110044
7.92295,0.0192593
8.14779,0.0099147
8.37262,0.002969456
8.59746,0.0766254
8.82229,0.03122975
9.04713,0.15277
9.27196,0.143587
9.4968,0.0639641
9.72163,0.106609
9.94647,0.021521
10.1713,-0.0211598
10.3961,0.0759812
10.621,0.0543021
10.8458,0.0715575
11.0706,0.00448362
11.2955,0.050997
11.5203,0.188528
11.7451,0.104577
11.97,0.245325
12.1948,0.277437
12.4197,0.322443
12.6445,0.338674
12.8693,0.279257
13.0942,0.423705
13.319,0.386601
13.5438,0.294682
13.7687,0.425725
13.9935,0.290147
14.2183,0.443504
14.4432,0.434406
14.668,0.391326
14.8928,0.345514
15.1177,0.333428
15.3425,0.202291
15.5673,0.231616
15.7922,0.329389
16.017,0.594569
16.2418,0.341392
16.4667,0.212218
16.6915,0.151494
16.9164,-0.0178662
17.1412,0.0392086
17.366,-0.066171
17.5909,0.120856
17.8157,-0.11846
18.0405,0.03706132
18.2654,0.01554446
18.4902,0.192039
18.715,0.37101
18.9399,0.691346
19.1647,0.835339
19.3895,1.04952
19.6144,0.863392
19.8392,0.540855
20.064,0.333642
20.2889,0.18446
20.5137,0.0776851
20.7385,0.126164
20.9634,0.01060114
21.1882,0.0629706
21.4131,0.008441344
21.6379,-0.0262507
21.8627,-0.006383148
22.0876,0.186099
22.3124,-0.002800039
22.5372,0.108588
22.7621,0.100925
22.9869,-0.04427471
23.2117,0.0762104
23.4366,-0.000480998
23.6614,-0.0577619
23.8862,0.001772785
24.1111,0.0251374
24.3359,0.100479
24.5607,-0.003344871
24.7856,0.04287669
25.0104,0.214838
25.2352,-0.01697385
25.4601,0.149523
25.6849,-0.0443502
25.9097,-0.0360949
26.1346,-0.065294
26.3594,0.128469
26.5843,0.0714605
26.8091,0.0871075
27.0339,0.126064
27.2588,0.118886
27.4836,0.126336
27.7084,0.169249
27.9333,0.407347
28.1581,0.46042
28.3829,0.338887
28.6078,0.523649
28.8326,0.648387
29.0574,0.600254
29.2823,0.7889728
29.5071,1.03399
29.7319,1.10439
29.9568,1.39082
30.1816,2.04604
30.4064,3.0579
30.6313,4.73891
30.8561,6.52482
31.081,8.81668
31.3058,8.72734
31.5306,7.61443
31.7555,7.0231
31.9803,6.88042
32.2051,7.87216
32.43,11.7205
32.6548,18.3787
32.8796,11.5567
33.1045,6.35347
33.3293,4.37843
33.5541,3.3694
33.779,3.3073
34.0038,3.18517
34.2286,3.63323
34.4535,4.00042
34.6783,4.81975
34.9031,4.63287
35.128,4.80611
35.3528,4.86377
35.5777,5.31453
35.8025,6.08374
36.0273,8.24952
36.2522,10.5011
36.477,12.5868
36.7018,12.7739
36.9267,12.2812
37.1515,10.0583
37.3763,9.25975
37.6012,7.5644
37.826,7.14235
38.0508,7.07521
38.2757,7.80568
38.5005,8.87023
38.7253,10.2758
38.9502,11.0693
39.175,10.9676
39.3998,11.4119
39.6247,10.8829
39.8495,9.03695
40.0743,6.59626
40.2992,5.01916
40.524,3.37682
40.7489,2.4453
40.9737,1.77667
41.1985,1.47683
41.4234,0.969406
41.6482,0.59987
41.873,0.595658
42.0979,0.173783
42.3227,0.0929257
42.5475,-0.0178777
42.7724,0.202266
42.9972,0.306207
43.222,-0.142721
43.4469,0.287564
43.6717,0.577964
43.8965,1.13994
44.1214,2.61237
44.3462,5.45534
44.571,10.0716
44.7959,13.7581
45.0207,14.8967
45.2456,14.9631
45.4704,13.8688
45.6952,11.1051
45.9201,8.32822
46.1449,7.87329
46.3697,7.80973
46.5946,7.65662
46.8194,7.30461
47.0442,6.06444
47.2691,6.15835
47.4939,5.73043
47.7187,3.9838
47.9436,2.2709
48.1684,1.02402
48.3932,0.588643
48.6181,0.279005
48.8429,0.0586492
49.0677,0.167158
49.2926,0.177449
49.5174,0.0199959
49.7423,-0.0286981
49.9671,0.294001
50.1919,0.851816
50.4168,1.42947
50.6416,1.76654
50.8664,1.53664
51.0913,1.04881
51.3161,0.731851
51.5409,0.469454
51.7658,-0.0352595
51.9906,-0.0729907
52.2154,0.129408
52.4403,0.0634504
52.6651,0.138857
52.8899,0.0952128
53.1148,0.187725
53.3396,-0.06624493
53.5644,0.0517528
53.7893,0.0773586
54.0141,-0.0751149
54.2389,0.01826787
54.4638,-0.0384448
54.6886,-0.165388
54.9135,-0.09365296
55.1383,-0.0923586
55.3631,0.114578
55.588,0.0430131
55.8128,0.0763547
56.0376,0.110436
56.2625,0.214702
56.4873,0.156514
56.7121,0.569552
56.937,0.320136
57.1618,0.17389
57.3866,0.134287
57.6115,0.133619
57.8363,0.0181284
58.0611,-0.0300953
58.286,0.281796
58.5108,0.490261
58.7356,0.716827
58.9605,1.35212
59.1853,1.66003
59.4102,2.43569
59.635,3.58709
59.8598,4.16631
60.0847,4.25149
60.3095,3.51969
60.5343,2.89801
60.7592,2.63992
60.984,2.32701
61.2088,2.4888
61.4337,2.54543
61.6585,2.71911
61.8833,2.81021
62.1082,3.0444
62.333,2.97031
62.5578,2.89001
62.7827,2.18198
63.0075,1.93824
63.2323,2.01814
63.4572,2.57622
63.682,3.4406
63.9069,3.73106
64.1317,3.89206
64.3565,3.53469
64.5814,3.51314
64.8062,3.70587
65.031,4.28996
65.2559,5.2741
65.4807,5.86662
65.7055,7.20293
65.9304,8.5695
66.1552,12.2181
66.38,17.6017
66.6049,19.7587
66.8297,22.3939
67.0545,26.0836
67.2794,27.7775
67.5042,22.8906
67.729,14.3811
67.9539,8.06858
68.1787,4.46165
68.4036,2.72177
68.6284,1.56424
68.8532,0.728619
69.0781,0.541311
69.3029,0.182869
69.5277,0.210584
69.7526,-0.05262836
69.9774,-0.193573
69.9978,-0.0983473