File: Carboncapture/XRD data/Pt_al2o3_400C.csv
2 theta,Intensity
5.0001,-0.0437142
5.22494,0.0580085
5.44977,0.018065
5.6746,-0.0194474
5.89944,0.0635654
6.12427,-0.005437131
6.34911,0.065623
6.57394,0.0626952
6.79878,-0.0645377
7.02361,0.0183113
7.24845,-0.00991052
7.47328,0.052156
7.69812,0.0663065
7.92295,-0.0160703
8.14779,0.0914841
8.37262,0.0509041
8.59746,0.0514698
8.82229,0.0128
9.04713,0.0228004
9.27196,0.0345533
9.4968,0.079065
9.72163,-0.0457652
9.94647,-0.006606637
10.1713,0.117164
10.3961,0.0473374
10.621,0.0572803
10.8458,0.126771
11.0706,0.2368874
11.2955,0.238324
11.5203,0.578997
11.7451,0.718976
11.97,0.989858
12.1948,1.12081
12.4197,1.16392
12.6445,1.57751
12.8693,1.72617
13.0942,2.08733
13.319,2.00648
13.5438,2.31522
13.7687,2.55694
13.9935,2.45213
14.2183,2.41399
14.4432,2.62307
14.668,2.54813
14.8928,2.64228
15.1177,2.83435
15.3425,2.85351
15.5673,2.72579
15.7922,2.91474
16.017,2.87
16.2418,2.9284
16.4667,2.8538
16.6915,2.55074
16.9164,2.48795
17.1412,2.31475
17.366,2.45127
17.5909,2.14231
17.8157,2.1205
18.0405,2.00737
18.2654,1.99563
18.4902,1.86132
18.715,1.96902
18.9399,1.93506
19.1647,2.15006
19.3895,2.36748
19.6144,1.9745
19.8392,1.42943
20.064,1.27741
20.2889,0.808385
20.5137,0.628247
20.7385,0.627623
20.9634,0.369014
21.1882,0.300336
21.4131,0.114297
21.6379,0.350828
21.8627,0.285971
22.0876,0.0672954
22.3124,0.208689
22.5372,0.05737574
22.7621,0.0109237
22.9869,-0.0964902
23.2117,-0.004011184
23.4366,-0.0306288
23.6614,0.0337263
23.8862,0.0670674
24.1111,0.0831606
24.3359,0.0423554
24.5607,0.168912
24.7856,0.132659
25.0104,0.0943899
25.2352,0.285982
25.4601,0.266464
25.6849,0.120904
25.9097,0.232984
26.1346,0.19819
26.3594,0.384577
26.5843,0.547353
26.8091,0.625754
27.0339,0.838532
27.2588,0.883601
27.4836,0.910268
27.7084,1.02444
27.9333,1.2834
28.1581,1.73576
28.3829,1.5534
28.6078,1.73979
28.8326,2.08139
29.0574,2.22751
29.2823,2.38126
29.5071,2.58433
29.7319,3.0485
29.9568,3.39184
30.1816,3.92337
30.4064,5.19519
30.6313,6.28714
30.8561,8.385
31.081,9.81167
31.3058,9.66092
31.5306,8.78343
31.7555,8.61323
31.9803,8.2163
32.2051,8.94506
32.43,13.3933
32.6548,18.4481
32.8796,11.7605
33.1045,7.22643
33.3293,5.25207
33.5541,4.30098
33.779,4.17002
34.0038,4.38525
34.2286,4.78693
34.4535,4.85424
34.6783,5.25731
34.9031,5.22011
35.128,5.43534
35.3528,5.5089
35.5777,5.64913
35.8025,6.34387
36.0273,8.04452
36.2522,9.86739
36.477,12.1371
36.7018,12.5256
36.9267,11.361
37.1515,9.55123
37.3763,8.0998
37.6012,7.2567
37.826,6.40214
38.0508,6.18023
38.2757,7.21247
38.5005,8.32354
38.7253,9.95614
38.9502,10.2544
39.175,10.3085
39.3998,10.6012
39.6247,10.5022
39.8495,8.50456
40.0743,6.46077
40.2992,4.72497
40.524,3.32667
40.7489,2.42212
40.9737,2.145
41.1985,1.53003
41.4234,1.26646
41.6482,0.819546
41.873,0.467083
42.0979,0.53198
42.3227,0.415281
42.5475,0.189902
42.7724,0.218691
42.9972,0.100604
43.222,0.1880744
43.4469,0.434225
43.6717,0.733155
43.8965,1.43556
44.1214,2.66817
44.3462,5.20877
44.571,9.80561
44.7959,12.8893
45.0207,14.1351
45.2456,13.8625
45.4704,12.8076
45.6952,10.1301
45.9201,7.96033
46.1449,7.15058
46.3697,7.40403
46.5946,7.12172
46.8194,6.51892
47.0442,6.05397
47.2691,5.80325
47.4939,5.44386
47.7187,3.87162
47.9436,1.84347
48.1684,0.91672
48.3932,0.200731
48.6181,0.0548805
48.8429,-0.180552
49.0677,0.0556106
49.2926,-0.230271
49.5174,-0.0947677
49.7423,0.173106
49.9671,0.28716
50.1919,1.02691
50.4168,1.38194
50.6416,1.83315
50.8664,1.36665
51.0913,0.838345
51.3161,0.928792
51.5409,0.325489
51.7658,0.110034
51.9906,-0.0630589
52.2154,0.207424
52.4403,0.330355
52.6651,0.111967
52.8899,0.272746
53.1148,-0.197724
53.3396,0.226598
53.5644,0.184111
53.7893,-0.01565652
54.0141,-0.112298
54.2389,0.121996
54.4638,0.155597
54.6886,0.0197534
54.9135,-0.0926862
55.1383,-0.136028
55.3631,0.102576
55.588,0.154374
55.8128,0.0836039
56.0376,0.35207
56.2625,0.121231
56.4873,0.302546
56.7121,0.26407
56.937,0.149899
57.1618,0.25691
57.3866,0.175379
57.6115,0.0858634
57.8363,0.278422
58.0611,0.208052
58.286,0.412682
58.5108,0.8003
58.7356,1.1209
58.9605,1.23908
59.1853,1.43954
59.4102,2.2414
59.635,3.21756
59.8598,4.2222
60.0847,3.61815
60.3095,3.17799
60.5343,2.72812
60.7592,2.18866
60.984,2.37211
61.2088,2.25765
61.4337,2.08486
61.6585,2.4961
61.8833,2.34726
62.1082,2.88142
62.333,2.55342
62.5578,2.29209
62.7827,2.02451
63.0075,1.78193
63.2323,1.96018
63.4572,2.50198
63.682,2.57398
63.9069,3.04078
64.1317,3.44751
64.3565,2.89139
64.5814,2.89499
64.8062,3.24304
65.031,3.82443
65.2559,4.37005
65.4807,5.33824
65.7055,6.31928
65.9304,8.29406
66.1552,11.2123
66.38,16.1554
66.6049,17.8788
66.8297,19.872
67.0545,23.6628
67.2794,25.0359
67.5042,19.8506
67.729,12.4611
67.9539,7.00295
68.1787,3.90309
68.4036,2.11816
68.6284,1.31483
68.8532,1.09553
69.0781,0.375187
69.3029,0.261442
69.5277,0.231725
69.7526,0.009994945
69.9774,-0.142358
69.9978,-0.111517