File: Carboncapture/XRD data/Pt_al2o3_600C.csv
2 theta,Intensity
5.0001,-0.0436797
5.22494,0.0716982
5.44977,-0.017018
5.6746,0.141561
5.89944,0.000558875
6.12427,0.0321992
6.34911,0.102801
6.57394,0.00229466
6.79878,0.0744304
7.02361,0.001581222
7.24845,-0.0163243
7.47328,-0.0508239
7.69812,0.01210792
7.92295,-0.0613461
8.14779,0.0152725
8.37262,0.0527275
8.59746,0.0250853
8.82229,0.0525158
9.04713,-0.028101
9.27196,-0.002781147
9.4968,-0.04313289
9.72163,-0.041051
9.94647,-0.0156326
10.1713,0.0799911
10.3961,0.0525229
10.621,0.0357975
10.8458,0.0800738
11.0706,0.0956032
11.2955,0.0841218
11.5203,0.00743524
11.7451,0.05651563
11.97,0.252196
12.1948,0.367047
12.4197,0.20315
12.6445,0.224049
12.8693,0.250922
13.0942,0.158771
13.319,0.234054
13.5438,0.207673
13.7687,0.143865
13.9935,0.09297624
14.2183,0.0272296
14.4432,0.000444474
14.668,0.0681763
14.8928,0.0134112
15.1177,0.002815921
15.3425,0.108156
15.5673,0.0310387
15.7922,0.2746
16.017,0.446011
16.2418,0.295273
16.4667,0.240788
16.6915,0.100264
16.9164,0.0211988
17.1412,0.0675745
17.366,0.145967
17.5909,0.00616008
17.8157,0.0501723
18.0405,0.0671737
18.2654,0.0415394
18.4902,0.105214
18.715,0.346738
18.9399,0.701877
19.1647,0.977922
19.3895,1.17487
19.6144,0.909048
19.8392,0.539825
20.064,0.315465
20.2889,0.175206
20.5137,0.105158
20.7385,0.0186338
20.9634,0.007555441
21.1882,0.0333793
21.4131,0.120549
21.6379,-0.001583068
21.8627,-0.008365134
22.0876,0.001699426
22.3124,0.005105978
22.5372,0.0891406
22.7621,-0.003141056
22.9869,0.08242758
23.2117,0.094346
23.4366,0.103537
23.6614,-0.0549073
23.8862,0.0504131
24.1111,-0.226186
24.3359,-0.000567585
24.5607,0.0890431
24.7856,0.103032
25.0104,0.234107
25.2352,0.143727
25.4601,0.139183
25.6849,0.0989485
25.9097,-0.08288061
26.1346,0.109321
26.3594,-0.000490177
26.5843,-0.0313813
26.8091,-0.0345827
27.0339,-0.0403602
27.2588,-0.003704036
27.4836,0.212539
27.7084,0.0979509
27.9333,0.08482472
28.1581,0.272118
28.3829,0.300457
28.6078,0.296576
28.8326,0.4896426
29.0574,0.402226
29.2823,0.749605
29.5071,1.1915
29.7319,1.0543
29.9568,1.55502
30.1816,2.46971
30.4064,3.3296
30.6313,5.067
30.8561,7.04127
31.081,9.51458
31.3058,8.69351
31.5306,8.11801
31.7555,7.07451
31.9803,7.13943
32.2051,8.05928
32.43,12.8341
32.6548,18.9256
32.8796,11.155
33.1045,6.14218
33.3293,3.94434
33.5541,3.40698
33.779,3.4763
34.0038,3.39534
34.2286,3.5582
34.4535,3.94753
34.6783,4.30984
34.9031,4.29619
35.128,4.59406
35.3528,4.76771
35.5777,5.36052
35.8025,6.25618
36.0273,8.21338
36.2522,10.5359
36.477,12.0762
36.7018,12.725
36.9267,11.4404
37.1515,9.30252
37.3763,8.16362
37.6012,7.01507
37.826,6.2909
38.0508,6.17861
38.2757,7.01326
38.5005,8.44417
38.7253,10.2109
38.9502,12.027
39.175,14.0557
39.3998,16.8977
39.6247,18.454
39.8495,14.8582
40.0743,9.65214
40.2992,5.78363
40.524,3.86381
40.7489,2.30238
40.9737,1.6827
41.1985,1.15754
41.4234,1.0064
41.6482,0.618187
41.873,0.583169
42.0979,0.291975
42.3227,0.11613
42.5475,0.0725801
42.7724,-0.136143
42.9972,0.185414
43.222,0.424406
43.4469,0.369025
43.6717,0.616495
43.8965,1.08175
44.1214,2.92103
44.3462,5.87566
44.571,10.713
44.7959,13.782
45.0207,14.4073
45.2456,14.9779
45.4704,14.0614
45.6952,12.0814
45.9201,10.9233
46.1449,10.5282
46.3697,10.2258
46.5946,9.09784
46.8194,7.07653
47.0442,6.31988
47.2691,6.189
47.4939,5.93388
47.7187,4.0771
47.9436,2.14817
48.1684,0.959594
48.3932,0.377685
48.6181,0.164597
48.8429,-0.118903
49.0677,0.0948213
49.2926,0.0141477
49.5174,-0.003258802
49.7423,0.329069
49.9671,0.6864739
50.1919,1.17312
50.4168,1.67094
50.6416,1.86398
50.8664,1.54216
51.0913,1.26625
51.3161,0.947702
51.5409,0.765336
51.7658,0.213946
51.9906,0.007072589
52.2154,0.005827459
52.4403,0.128613
52.6651,0.180985
52.8899,0.109125
53.1148,0.0189335
53.3396,0.0996483
53.5644,0.0547619
53.7893,-0.0863289
54.0141,-0.001519548
54.2389,-0.101707
54.4638,-0.0247625
54.6886,0.0234352
54.9135,-0.118125
55.1383,-0.147204
55.3631,0.105733
55.588,-0.0172986
55.8128,0.0444644
56.0376,0.240675
56.2625,0.283139
56.4873,0.296855
56.7121,0.358214
56.937,0.411659
57.1618,0.29226
57.3866,0.0225866
57.6115,0.0470828
57.8363,0.230332
58.0611,0.0837889
58.286,0.32303
58.5108,0.200192
58.7356,0.817703
58.9605,1.04709
59.1853,1.49774
59.4102,2.40922
59.635,3.52111
59.8598,3.9376
60.0847,3.80971
60.3095,2.87183
60.5343,2.73853
60.7592,2.24142
60.984,2.20688
61.2088,2.19394
61.4337,2.42656
61.6585,2.37522
61.8833,2.62152
62.1082,2.71061
62.333,2.64769
62.5578,2.3824
62.7827,2.16476
63.0075,1.85761
63.2323,1.96616
63.4572,2.26297
63.682,2.91645
63.9069,3.56028
64.1317,3.33162
64.3565,3.50997
64.5814,3.13527
64.8062,3.23183
65.031,3.70936
65.2559,4.80397
65.4807,5.81081
65.7055,6.56148
65.9304,8.12888
66.1552,12.0946
66.38,16.9483
66.6049,19.3878
66.8297,21.7135
67.0545,26.3906
67.2794,27.664
67.5042,22.3513
67.729,14.4839
67.9539,7.74745
68.1787,4.14891
68.4036,2.41225
68.6284,1.13816
68.8532,0.941228
69.0781,0.448188
69.3029,0.155568
69.5277,-0.0633692
69.7526,0.029225
69.9774,-0.104844
69.9978,-0.105632